File: v44/data/Reflect2.UXD
; C:\DIFFDAT1\Praktikum\KochVogt\Reflect2.raw(Diffrac Plus V1.01 file) converted by XCH V1.0
_FILEVERSION=2
_SITE='Deutschland'
_USER='Administrator'
_GONIOMETER_CODE=4885
; D8 Theta/Theta; Special
_SAMPLE_CHANGER_CODE=0
_ATTACHMENTS_CODE=0
_GONIOMETER_RADIUS=350
_FIXED_DIVSLIT=0.600000
_FIXED_SAMPLESLIT=0.000000
_FIXED_DETSLIT=11.66
_MONOCHROMATOR=0
; None
_THIN_FILM='N'
_BETA_FILTER='Y'
_FIXED_ANTISLIT=8.340000
_ANALYZER_CODE=0
; None
_DATEMEASURED='28-Oct-2024 11:10:51'
_WL_UNIT='A'
_WL1=1.540600
_WL2=1.544390
_WL3=1.392220
_WLRATIO=0.500000
_ANODE='Cu'
; (Data for Range number 1)
_DRIVE='THETA'
_STEPTIME=5.000660
_STEPSIZE=0.005000
_STEPMODE='C'
_START=0.000000
_THETA=0.000000
_2THETA=0.200000
_KHI=0.000000
_PHI=90
_X=4.611000
_Y=0.600000
_Z=0.361000
_DIVERGENCE=0.000000
_ANTISCATTER=0.000000
_DETECTOR=5
_DETECTORSLIT='unkn'
_AUX1=0.000000
_AUX2=0.000000
_AUX3=0.000000
_TIMESTARTED=2.000000
_TEMP_RATE=-1.000000
_TEMP_DELAY=-1.000000
_KV=35
_MA=35
_RANGE_WL=1.540600
_3DPLANE=0
_GONIOMETER=0.197500
_PSDCHANNEL0=0
_2THETACOUNTS
   0.0000     35316
   0.0100     31365
   0.0200     27204
   0.0300     23881
   0.0400     21680
   0.0500     16897
   0.0600     13563
   0.0700     12625
   0.0800     10712
   0.0900      9524
   0.1000      8338
   0.1100      6846
   0.1200      5677
   0.1300      4630
   0.1400      3677
   0.1500      2816
   0.1600      2132
   0.1700      1587
   0.1800      1249
   0.1900      1049
   0.2000       798
   0.2100       597
   0.2200       487
   0.2300       389
   0.2400       329
   0.2500       262
   0.2600       209
   0.2700       168
   0.2800        98
   0.2900        62
   0.3000        46
   0.3100        50
   0.3200        30
   0.3300        32
   0.3400        35
   0.3500        21
   0.3600        22
   0.3700        21
   0.3800         9
   0.3900        14
   0.4000        16
   0.4100        22
   0.4200        13
   0.4300        14
   0.4400        10
   0.4500         9
   0.4600        11
   0.4700        12
   0.4800         8
   0.4900        13
   0.5000         9
   0.5100        11
   0.5200        10
   0.5300         8
   0.5400         9
   0.5500        11
   0.5600         8
   0.5700         6
   0.5800         7
   0.5900         6
   0.6000         9
   0.6100         8
   0.6200         6
   0.6300         3
   0.6400        10
   0.6500         7
   0.6600         7
   0.6700        10
   0.6800        11
   0.6900         9
   0.7000        12
   0.7100         9
   0.7200        10
   0.7300         7
   0.7400        12
   0.7500         9
   0.7600         6
   0.7700         7
   0.7800         4
   0.7900         4
   0.8000         1
   0.8100         1
   0.8200         3
   0.8300         2
   0.8400         4
   0.8500         0
   0.8600         3
   0.8700         3
   0.8800         0
   0.8900         0
   0.9000         1
   0.9100         1
   0.9200         0
   0.9300         1
   0.9400         1
   0.9500         0
   0.9600         0
   0.9700         0
   0.9800         0
   0.9900         0
   1.0000         0
   1.0100         0
   1.0200         1
   1.0300         1
   1.0400         1
   1.0500         1
   1.0600         0
   1.0700         0
   1.0800         1
   1.0900         1
   1.1000         2
   1.1100         0
   1.1200         0
   1.1300         2
   1.1400         1
   1.1500         0
   1.1600         0
   1.1700         0
   1.1800         1
   1.1900         0
   1.2000         1
   1.2100         0
   1.2200         1
   1.2300         0
   1.2400         0
   1.2500         0
   1.2600         1
   1.2700         0
   1.2800         0
   1.2900         0
   1.3000         0
   1.3100         0
   1.3200         0
   1.3300         0
   1.3400         0
   1.3500         0
   1.3600         0
   1.3700         1
   1.3800         0
   1.3900         0
   1.4000         0
   1.4100         0
   1.4200         0
   1.4300         2
   1.4400         0
   1.4500         0
   1.4600         0
   1.4700         0
   1.4800         3
   1.4900         0
   1.5000         1
   1.5100         0
   1.5200         0
   1.5300         0
   1.5400         0
   1.5500         0
   1.5600         1
   1.5700         0
   1.5800         1
   1.5900         0
   1.6000         1
   1.6100         1
   1.6200         0
   1.6300         0
   1.6400         0
   1.6500         0
   1.6600         0
   1.6700         0
   1.6800         0
   1.6900         0
   1.7000         0
   1.7100         0
   1.7200         0
   1.7300         0
   1.7400         1
   1.7500         0
   1.7600         0
   1.7700         2
   1.7800         0
   1.7900         0
   1.8000         0
   1.8100         0
   1.8200         0
   1.8300         0
   1.8400         0
   1.8500         1
   1.8600         1
   1.8700         0
   1.8800         1
   1.8900         1
   1.9000         0
   1.9100         0
   1.9200         0
   1.9300         0
   1.9400         0
   1.9500         0
   1.9600         0
   1.9700         0
   1.9800         0
   1.9900         0
   2.0000         0
   2.0100         0
   2.0200         0
   2.0300         1
   2.0400         0
   2.0500         0
   2.0600         0
   2.0700         0
   2.0800         0
   2.0900         0
   2.1000         0
   2.1050         0