File: v44/data/Reflect1.UXD
; C:\DIFFDAT1\Praktikum\KochVogt\Reflect1.raw(Diffrac Plus V1.01 file) converted by XCH V1.0
_FILEVERSION=2
_SITE='Deutschland'
_USER='Administrator'
_GONIOMETER_CODE=4885
; D8 Theta/Theta; Special
_SAMPLE_CHANGER_CODE=0
_ATTACHMENTS_CODE=0
_GONIOMETER_RADIUS=350
_FIXED_DIVSLIT=0.600000
_FIXED_SAMPLESLIT=0.000000
_FIXED_DETSLIT=11.66
_MONOCHROMATOR=0
; None
_THIN_FILM='N'
_BETA_FILTER='Y'
_FIXED_ANTISLIT=8.340000
_ANALYZER_CODE=0
; None
_DATEMEASURED='28-Oct-2024 10:28:19'
_WL_UNIT='A'
_WL1=1.540600
_WL2=1.544390
_WL3=1.392220
_WLRATIO=0.500000
_ANODE='Cu'
; (Data for Range number 1)
_DRIVE='THETA'
_STEPTIME=5.000660
_STEPSIZE=0.005000
_STEPMODE='C'
_START=0.000000
_THETA=0.000000
_2THETA=0.000000
_KHI=0.000000
_PHI=90
_X=4.611000
_Y=0.600000
_Z=0.361000
_DIVERGENCE=0.000000
_ANTISCATTER=0.000000
_DETECTOR=5
_DETECTORSLIT='unkn'
_AUX1=0.000000
_AUX2=0.000000
_AUX3=0.000000
_TIMESTARTED=2.000000
_TEMP_RATE=-1.000000
_TEMP_DELAY=-1.000000
_KV=35
_MA=35
_RANGE_WL=1.540600
_3DPLANE=0
_GONIOMETER=-0.002400
_PSDCHANNEL0=0
_2THETACOUNTS
   0.0000   1320100
   0.0100   1641420
   0.0200   1150510
   0.0300    594635
   0.0400    422259
   0.0500    368620
   0.0600    375488
   0.0700    390917
   0.0800    420542
   0.0900    453571
   0.1000    486310
   0.1100    518648
   0.1200    553920
   0.1300    587488
   0.1400    623667
   0.1500    644783
   0.1600    617842
   0.1700    656671
   0.1800    665738
   0.1900    716072
   0.2000    722596
   0.2100    667436
   0.2200    537715
   0.2300    284379
   0.2400    117881
   0.2500     89856
   0.2600     93110
   0.2700     62195
   0.2800     28282
   0.2900     24042
   0.3000     33717
   0.3100     30693
   0.3200     16947
   0.3300      9414
   0.3400     12836
   0.3500     16237
   0.3600     12976
   0.3700      7077
   0.3800      5076
   0.3900      7197
   0.4000      8666
   0.4100      6729
   0.4200      3608
   0.4300      2950
   0.4400      4136
   0.4500      4768
   0.4600      3647
   0.4700      2223
   0.4800      1788
   0.4900      2579
   0.5000      2886
   0.5100      2396
   0.5200      1378
   0.5300      1127
   0.5400      1470
   0.5500      1765
   0.5600      1473
   0.5700       915
   0.5800       741
   0.5900       894
   0.6000      1123
   0.6100      1060
   0.6200       675
   0.6300       483
   0.6400       569
   0.6500       716
   0.6600       691
   0.6700       545
   0.6800       329
   0.6900       379
   0.7000       466
   0.7100       489
   0.7200       462
   0.7300       268
   0.7400       252
   0.7500       284
   0.7600       368
   0.7700       307
   0.7800       184
   0.7900       167
   0.8000       233
   0.8100       233
   0.8200       253
   0.8300       170
   0.8400       129
   0.8500       140
   0.8600       175
   0.8700       155
   0.8800       119
   0.8900        79
   0.9000       102
   0.9100       107
   0.9200       114
   0.9300        90
   0.9400        75
   0.9500        59
   0.9600        84
   0.9700        87
   0.9800        66
   0.9900        52
   1.0000        52
   1.0100        52
   1.0200        61
   1.0300        64
   1.0400        54
   1.0500        37
   1.0600        52
   1.0700        46
   1.0800        54
   1.0900        30
   1.1000        36
   1.1100        22
   1.1200        25
   1.1300        28
   1.1400        21
   1.1500        27
   1.1600        19
   1.1700        19
   1.1800        25
   1.1900        23
   1.2000        15
   1.2100        10
   1.2200        13
   1.2300        21
   1.2400        16
   1.2500        12
   1.2600        13
   1.2700         5
   1.2800        10
   1.2900        21
   1.3000        20
   1.3100         7
   1.3200        10
   1.3300        10
   1.3400        10
   1.3500        12
   1.3600         5
   1.3700        10
   1.3800        12
   1.3900         5
   1.4000         8
   1.4100         8
   1.4200         7
   1.4300         6
   1.4400         3
   1.4500         5
   1.4600         8
   1.4700         5
   1.4800         6
   1.4900         5
   1.5000         3
   1.5100         9
   1.5200         3
   1.5300         4
   1.5400         2
   1.5500         4
   1.5600         4
   1.5700         7
   1.5800         3
   1.5900         4
   1.6000         7
   1.6100         2
   1.6200         2
   1.6300         1
   1.6400         1
   1.6500         1
   1.6600         1
   1.6700         4
   1.6800         1
   1.6900         2
   1.7000         1
   1.7100         1
   1.7200         4
   1.7300         1
   1.7400         0
   1.7500         1
   1.7600         2
   1.7700         2
   1.7800         2
   1.7900         1
   1.8000         1
   1.8100         2
   1.8200         1
   1.8300         0
   1.8400         2
   1.8500         0
   1.8600         1
   1.8700         1
   1.8800         2
   1.8900         2
   1.9000         0
   1.9100         1
   1.9200         0
   1.9300         1
   1.9400         1
   1.9500         1
   1.9600         0
   1.9700         0
   1.9800         2
   1.9900         0
   2.0000         1
   2.0100         3
   2.0200         1
   2.0300         3
   2.0400         0
   2.0500         0
   2.0600         1
   2.0700         1
   2.0750         0