File: v44/data/Rocking2.UXD
; C:\DIFFDAT1\Praktikum\KochVogt\Rocking2.raw(Diffrac Plus V1.01 file) converted by XCH V1.0
_FILEVERSION=2
_SITE='Deutschland'
_USER='Administrator'
_GONIOMETER_CODE=4885
; D8 Theta/Theta; Special
_SAMPLE_CHANGER_CODE=0
_ATTACHMENTS_CODE=0
_GONIOMETER_RADIUS=350
_FIXED_DIVSLIT=0.600000
_FIXED_SAMPLESLIT=0.000000
_FIXED_DETSLIT=11.66
_MONOCHROMATOR=0
; None
_THIN_FILM='N'
_BETA_FILTER='Y'
_FIXED_ANTISLIT=8.340000
_ANALYZER_CODE=0
; None
_DATEMEASURED='28-Oct-2024 10:18:18'
_WL_UNIT='A'
_WL1=1.540600
_WL2=1.544390
_WL3=1.392220
_WLRATIO=0.500000
_ANODE='Cu'
; (Data for Range number 1)
_DRIVE='THETA'
_STEPTIME=1.000000
_STEPSIZE=0.005000
_STEPMODE='S'
_START=0.000000
_THETA=0.000000
_2THETA=0.300000
_KHI=0.000000
_PHI=90
_X=4.611000
_Y=0.600000
_Z=0.366000
_DIVERGENCE=0.000000
_ANTISCATTER=0.000000
_DETECTOR=5
_DETECTORSLIT='unkn'
_AUX1=0.000000
_AUX2=0.000000
_AUX3=0.000000
_TIMESTARTED=2.000000
_TEMP_RATE=-1.000000
_TEMP_DELAY=-1.000000
_KV=35
_MA=35
_RANGE_WL=1.540600
_3DPLANE=0
_GONIOMETER=0.300000
_PSDCHANNEL0=0
_2THETACOUNTS
   0.0000      3255
   0.0050      3190
   0.0100      3159
   0.0150      3243
   0.0200      3237
   0.0250      3250
   0.0300      3214
   0.0350      3338
   0.0400      3228
   0.0450      3227
   0.0500      3389
   0.0550      3466
   0.0600      3391
   0.0650      3499
   0.0700      3567
   0.0750      3661
   0.0800      3871
   0.0850      4102
   0.0900      4605
   0.0950      5037
   0.1000      5873
   0.1050      6603
   0.1100      7348
   0.1150      8860
   0.1200     11316
   0.1250     14341
   0.1300     19807
   0.1350     31722
   0.1400     57056
   0.1450     93374
   0.1500    116481
   0.1550    128571
   0.1600    128282
   0.1650    113431
   0.1700     70753
   0.1750     31915
   0.1800     16080
   0.1850     12459
   0.1900     10639
   0.1950      9178
   0.2000      7784
   0.2050      6793
   0.2100      5872
   0.2150      5191
   0.2200      4648
   0.2250      4261
   0.2300      4098
   0.2350      3840
   0.2400      3615
   0.2450      3444
   0.2500      3411
   0.2550      3479
   0.2600      3328
   0.2650      3359
   0.2700      3218
   0.2750      3328
   0.2800      3222
   0.2850      3169
   0.2900      3306
   0.2950      3250
   0.3000      3271